ENVI ASCII Plot File [Wed Jun 03 14:23:21 2015]
Column 1: Wavelength
Column 2: MONTMORILLONITE 1292F35~~2##255,0,0
0.350000  0.025839
0.352500  0.026137
0.355000  0.026436
0.357500  0.026805
0.360000  0.027175
0.362500  0.027726
0.365000  0.028277
0.367500  0.028811
0.370000  0.029345
0.372500  0.030215
0.375000  0.031086
0.377500  0.032034
0.380000  0.032982
0.382500  0.034166
0.385000  0.035349
0.387500  0.036577
0.390000  0.037804
0.392500  0.039255
0.395000  0.040706
0.397500  0.042261
0.400000  0.043816
0.402500  0.045547
0.405000  0.047278
0.407500  0.048850
0.410000  0.050423
0.412500  0.052268
0.415000  0.054114
0.417500  0.055987
0.420000  0.057860
0.422500  0.060069
0.425000  0.062277
0.427500  0.064668
0.430000  0.067060
0.432500  0.069665
0.435000  0.072271
0.437500  0.075197
0.440000  0.078123
0.442500  0.081076
0.445000  0.084029
0.447500  0.086792
0.450000  0.089556
0.452500  0.092458
0.455000  0.095361
0.457500  0.097805
0.460000  0.100249
0.462500  0.102619
0.465000  0.104990
0.467500  0.107261
0.470000  0.109532
0.472500  0.111813
0.475000  0.114093
0.477500  0.116647
0.480000  0.119202
0.482500  0.122415
0.485000  0.125629
0.487500  0.128868
0.490000  0.132108
0.492500  0.135778
0.495000  0.139447
0.497500  0.143667
0.500000  0.147886
0.502500  0.152781
0.505000  0.157676
0.507500  0.162957
0.510000  0.168238
0.512500  0.174284
0.515000  0.180330
0.517500  0.186613
0.520000  0.192896
0.522500  0.200023
0.525000  0.207150
0.527500  0.214083
0.530000  0.221016
0.532500  0.228068
0.535000  0.235119
0.537500  0.242895
0.540000  0.250671
0.542500  0.258505
0.545000  0.266338
0.547500  0.274561
0.550000  0.282784
0.552500  0.291197
0.555000  0.299611
0.557500  0.308217
0.560000  0.316823
0.562500  0.325800
0.565000  0.334777
0.567500  0.344355
0.570000  0.353933
0.572500  0.363474
0.575000  0.373015
0.577500  0.382641
0.580000  0.392268
0.582500  0.401354
0.585000  0.410440
0.587500  0.419933
0.590000  0.429426
0.592500  0.438451
0.595000  0.447477
0.597500  0.456792
0.600000  0.466107
0.602500  0.474181
0.605000  0.482255
0.607500  0.489937
0.610000  0.497619
0.612500  0.505682
0.615000  0.513745
0.617500  0.520898
0.620000  0.528052
0.622500  0.535074
0.625000  0.542095
0.627500  0.548612
0.630000  0.555130
0.632500  0.561064
0.635000  0.566998
0.637500  0.572662
0.640000  0.578327
0.642500  0.583400
0.645000  0.588474
0.647500  0.592353
0.650000  0.596231
0.652500  0.601354
0.655000  0.606476
0.657500  0.610197
0.660000  0.613917
0.662500  0.619134
0.665000  0.624352
0.667500  0.627428
0.670000  0.630504
0.672500  0.633479
0.675000  0.636453
0.677500  0.640751
0.680000  0.645050
0.682500  0.648418
0.685000  0.651785
0.687500  0.655345
0.690000  0.658905
0.692500  0.662384
0.695000  0.665863
0.697500  0.669541
0.700000  0.673218
0.702500  0.676530
0.705000  0.679841
0.707500  0.682660
0.710000  0.685480
0.712500  0.687570
0.715000  0.689660
0.717500  0.692941
0.720000  0.696223
0.722500  0.698518
0.725000  0.700813
0.727500  0.703528
0.730000  0.706242
0.732500  0.707289
0.735000  0.708335
0.737500  0.710397
0.740000  0.712459
0.742500  0.714905
0.745000  0.717351
0.747500  0.719226
0.750000  0.721101
0.752500  0.721923
0.755000  0.722744
0.757500  0.723563
0.760000  0.724381
0.762500  0.724765
0.765000  0.725149
0.767500  0.726134
0.770000  0.727119
0.772500  0.727126
0.775000  0.727132
0.777500  0.727278
0.780000  0.727424
0.782500  0.727021
0.785000  0.726617
0.787500  0.726620
0.790000  0.726623
0.792500  0.726471
0.795000  0.726319
0.797500  0.725461
0.800000  0.724604
0.802500  0.723871
0.805000  0.723139
0.807500  0.722440
0.810000  0.721741
0.812500  0.720578
0.815000  0.719415
0.817500  0.719099
0.820000  0.718783
0.822500  0.716995
0.825000  0.715207
0.827500  0.715068
0.830000  0.714930
0.832500  0.714501
0.835000  0.714072
0.837500  0.713032
0.840000  0.711993
0.842500  0.710782
0.845000  0.709570
0.847500  0.709026
0.850000  0.708481
0.852500  0.706141
0.855000  0.703802
0.857500  0.703992
0.860000  0.704181
0.862500  0.703385
0.865000  0.702588
0.867500  0.702170
0.870000  0.701751
0.872500  0.700911
0.875000  0.700071
0.877500  0.699513
0.880000  0.698955
0.882500  0.698639
0.885000  0.698323
0.887500  0.697754
0.890000  0.697184
0.892500  0.696537
0.895000  0.695890
0.897500  0.695670
0.899999  0.695451
0.902499  0.695049
0.904999  0.694647
0.907499  0.695100
0.909999  0.695553
0.912499  0.695076
0.914999  0.694598
0.917499  0.694727
0.919999  0.694857
0.922499  0.694816
0.924999  0.694774
0.927499  0.695175
0.929999  0.695577
0.932499  0.695266
0.934999  0.694954
0.937499  0.696198
0.939999  0.697442
0.942499  0.697225
0.944999  0.697008
0.947499  0.696717
0.949999  0.696426
0.952499  0.696639
0.954999  0.696852
0.957499  0.697172
0.959999  0.697493
0.962499  0.697843
0.964999  0.698193
0.967499  0.698838
0.969999  0.699483
0.972499  0.700453
0.974999  0.701424
0.977499  0.702197
0.979999  0.702971
0.982499  0.703641
0.984999  0.704311
0.987499  0.705380
0.989999  0.706450
0.992499  0.707008
0.994999  0.707566
0.997499  0.709206
0.999999  0.710846
1.002500  0.710611
1.005000  0.710374
1.007500  0.711271
1.010000  0.712168
1.012500  0.713511
1.015000  0.714853
1.017500  0.715869
1.020000  0.716885
1.022500  0.717809
1.025000  0.718734
1.027500  0.719717
1.030000  0.720699
1.032500  0.722230
1.035000  0.723761
1.037500  0.724925
1.040000  0.726088
1.042500  0.727260
1.045000  0.728432
1.047500  0.729791
1.050000  0.731149
1.052500  0.732185
1.055000  0.733220
1.057500  0.735121
1.060000  0.737022
1.062500  0.738058
1.065000  0.739094
1.067500  0.740447
1.070000  0.741801
1.072500  0.742725
1.075000  0.743649
1.077500  0.745595
1.080000  0.747542
1.082500  0.748223
1.085000  0.748904
1.087500  0.750817
1.090000  0.752730
1.092500  0.754505
1.095000  0.756281
1.097500  0.757374
1.100000  0.758466
1.102500  0.759838
1.105000  0.761211
1.107500  0.762745
1.110000  0.764279
1.112500  0.766055
1.115000  0.767832
1.117500  0.768951
1.120000  0.770070
1.122500  0.771575
1.125000  0.773081
1.127500  0.774731
1.130000  0.776381
1.132500  0.777065
1.135000  0.777749
1.137500  0.778607
1.140000  0.779464
1.142500  0.780734
1.145000  0.782004
1.147500  0.782766
1.150000  0.783528
1.152500  0.785832
1.155000  0.788135
1.157500  0.789177
1.160000  0.790218
1.162500  0.792208
1.165000  0.794197
1.167500  0.796280
1.170000  0.798363
1.172500  0.799777
1.175000  0.801190
1.177500  0.802016
1.180000  0.802842
1.182500  0.804759
1.185000  0.806675
1.187500  0.807616
1.190000  0.808558
1.192500  0.810845
1.195000  0.813133
1.197500  0.814845
1.200000  0.816557
1.202500  0.817209
1.205000  0.817861
1.207500  0.819683
1.210000  0.821505
1.212500  0.822581
1.215000  0.823656
1.217500  0.825175
1.220000  0.826695
1.222500  0.828541
1.225000  0.830388
1.227500  0.831816
1.230000  0.833244
1.232500  0.833733
1.235000  0.834222
1.237500  0.835861
1.240000  0.837501
1.242500  0.838171
1.245010  0.838847
1.247510  0.840192
1.250010  0.841535
1.252510  0.842616
1.255010  0.843699
1.257510  0.845199
1.260010  0.846697
1.262510  0.847878
1.265010  0.849060
1.267510  0.850276
1.270010  0.851488
1.272510  0.851743
1.275010  0.851998
1.277510  0.853175
1.280010  0.853628
1.282510  0.854855
1.285010  0.855482
1.287510  0.855866
1.290010  0.856522
1.292510  0.857089
1.295010  0.857682
1.297510  0.858340
1.300010  0.858885
1.302510  0.859194
1.305010  0.860280
1.307510  0.860642
1.310010  0.860906
1.312510  0.861212
1.315010  0.862467
1.317510  0.863310
1.320010  0.863458
1.322510  0.863976
1.325010  0.864301
1.327510  0.864951
1.330010  0.865231
1.332510  0.865790
1.335010  0.866164
1.337510  0.866437
1.340010  0.866739
1.342510  0.866804
1.345010  0.867142
1.347510  0.867541
1.350010  0.868059
1.352510  0.868358
1.355010  0.868498
1.357510  0.868577
1.360010  0.868504
1.362510  0.868290
1.365010  0.868000
1.367510  0.867378
1.370010  0.866387
1.372510  0.864926
1.375010  0.862439
1.377510  0.859410
1.380010  0.856452
1.382510  0.853185
1.385010  0.851172
1.387510  0.847193
1.390010  0.843531
1.392510  0.838556
1.395010  0.832525
1.397510  0.825342
1.400010  0.818713
1.402510  0.812767
1.405010  0.807669
1.407510  0.804181
1.410010  0.801869
1.412510  0.802023
1.415010  0.804449
1.417510  0.808317
1.420010  0.814347
1.422510  0.820063
1.425010  0.826953
1.427510  0.832682
1.430010  0.838661
1.432510  0.843575
1.435010  0.848238
1.437510  0.851766
1.440010  0.855190
1.442510  0.857776
1.445010  0.860238
1.447510  0.862520
1.450010  0.863766
1.452510  0.865138
1.455010  0.866095
1.457510  0.866508
1.460010  0.867455
1.462510  0.868081
1.465010  0.868861
1.467510  0.869837
1.470010  0.870848
1.472510  0.871734
1.475010  0.872280
1.477510  0.873386
1.480010  0.874011
1.482510  0.874480
1.485010  0.875266
1.487510  0.876161
1.490010  0.876515
1.492510  0.877179
1.495010  0.877583
1.497510  0.878300
1.500010  0.878724
1.502510  0.879252
1.505010  0.879585
1.507510  0.880065
1.510010  0.880082
1.512510  0.880443
1.515010  0.881123
1.517510  0.881678
1.520010  0.881501
1.522510  0.881851
1.525010  0.881794
1.527510  0.882810
1.530010  0.882807
1.532510  0.882941
1.535010  0.883379
1.537510  0.883496
1.540010  0.883610
1.542510  0.883982
1.545010  0.884118
1.547510  0.884006
1.550010  0.883997
1.552510  0.884473
1.555010  0.884616
1.557510  0.884944
1.560010  0.885238
1.562510  0.884804
1.565010  0.885178
1.567510  0.885509
1.570010  0.885503
1.572510  0.885850
1.575010  0.885689
1.577510  0.886224
1.580010  0.885887
1.582510  0.885954
1.585010  0.886088
1.587510  0.886081
1.590010  0.886191
1.592510  0.886204
1.595010  0.886170
1.597510  0.886406
1.600010  0.886161
1.602510  0.886544
1.605010  0.886700
1.607510  0.886482
1.610010  0.886194
1.612510  0.886284
1.615010  0.886151
1.617510  0.886430
1.620010  0.886840
1.622510  0.886766
1.625010  0.886442
1.627510  0.886391
1.630010  0.887014
1.632510  0.886551
1.635010  0.886470
1.637510  0.886473
1.640010  0.886406
1.642510  0.886377
1.645010  0.886589
1.647510  0.886511
1.650010  0.886671
1.652510  0.886183
1.655010  0.886197
1.657510  0.886199
1.660010  0.886167
1.662510  0.885973
1.665010  0.885910
1.667510  0.885686
1.670010  0.885780
1.672510  0.885547
1.675010  0.885420
1.677510  0.885429
1.680010  0.885502
1.682520  0.885218
1.685020  0.885224
1.687520  0.884685
1.690020  0.884734
1.692520  0.885008
1.695020  0.885020
1.697520  0.884752
1.700020  0.884404
1.702520  0.884378
1.705020  0.884289
1.707520  0.883905
1.710020  0.883972
1.712520  0.883874
1.715020  0.883596
1.717520  0.883464
1.720020  0.883518
1.722520  0.883255
1.725020  0.883115
1.727520  0.882872
1.730020  0.882782
1.732520  0.882356
1.735020  0.882228
1.737520  0.882321
1.740020  0.882227
1.742520  0.881923
1.745020  0.881588
1.747520  0.881386
1.750020  0.881392
1.752520  0.881270
1.755020  0.880948
1.757520  0.880880
1.760020  0.880955
1.762520  0.880398
1.765020  0.879920
1.767520  0.880020
1.770020  0.879813
1.772520  0.879673
1.775020  0.879660
1.777520  0.879625
1.780020  0.879081
1.782520  0.879321
1.785020  0.878812
1.787520  0.878555
1.790020  0.878493
1.792520  0.878002
1.795020  0.877954
1.797520  0.878401
1.800020  0.877771
1.802520  0.877296
1.805020  0.877214
1.807520  0.877103
1.810020  0.877110
1.812520  0.876991
1.815020  0.876612
1.817520  0.876378
1.820020  0.876335
1.822520  0.875556
1.825020  0.875532
1.827520  0.875362
1.830020  0.875084
1.832520  0.874332
1.835020  0.874136
1.837520  0.874056
1.840020  0.873729
1.842520  0.873320
1.845020  0.873174
1.847520  0.872703
1.850020  0.872456
1.852520  0.872538
1.855020  0.871671
1.857520  0.871239
1.860020  0.870666
1.862520  0.869985
1.865020  0.868697
1.867520  0.867718
1.870020  0.866024
1.872520  0.863747
1.875020  0.861606
1.877520  0.858423
1.880020  0.854310
1.882520  0.849670
1.885020  0.843600
1.887520  0.836770
1.890020  0.829683
1.892520  0.822349
1.895020  0.815417
1.897520  0.808872
1.900020  0.802780
1.902520  0.797958
1.905020  0.794409
1.907520  0.792406
1.910020  0.792596
1.912520  0.793996
1.915020  0.796472
1.917520  0.799298
1.920020  0.802336
1.922520  0.805431
1.925020  0.808171
1.927520  0.810750
1.930020  0.813098
1.932520  0.815081
1.935020  0.816675
1.937520  0.818005
1.940020  0.819852
1.942520  0.821468
1.945020  0.822438
1.947520  0.823630
1.950020  0.824263
1.952520  0.825513
1.955020  0.826818
1.957520  0.827649
1.960020  0.828976
1.962520  0.830220
1.965020  0.830956
1.967520  0.831545
1.970020  0.832479
1.972520  0.833252
1.975020  0.834078
1.977520  0.834624
1.980020  0.835017
1.982520  0.835856
1.985020  0.836749
1.987520  0.837467
1.990020  0.837933
1.992520  0.838394
1.995020  0.839383
1.997520  0.839730
2.000020  0.840316
2.002520  0.841002
2.005020  0.841554
2.007520  0.842012
2.010020  0.842617
2.012520  0.843003
2.015020  0.843834
2.017520  0.844225
2.020020  0.844378
2.022520  0.844834
2.025020  0.845444
2.027520  0.845485
2.030020  0.845814
2.032520  0.846167
2.035020  0.846468
2.037520  0.846629
2.040020  0.846891
2.042520  0.846998
2.045020  0.847277
2.047520  0.847431
2.050020  0.847329
2.052520  0.847297
2.055020  0.847066
2.057520  0.847141
2.060020  0.846908
2.062520  0.846933
2.065020  0.846388
2.067520  0.846054
2.070020  0.845770
2.072520  0.845108
2.075020  0.844858
2.077520  0.844336
2.080020  0.844137
2.082520  0.843524
2.085020  0.843019
2.087520  0.842460
2.090020  0.842161
2.092520  0.841803
2.095020  0.841690
2.097520  0.841468
2.100020  0.841327
2.102520  0.841641
2.105020  0.840859
2.107520  0.841707
2.110020  0.841798
2.112520  0.841148
2.115020  0.840950
2.117520  0.841322
2.120020  0.840956
2.122520  0.840329
2.125030  0.840293
2.127530  0.839689
2.130030  0.839351
2.132530  0.838363
2.135030  0.838325
2.137530  0.837151
2.140030  0.835774
2.142530  0.834113
2.145030  0.833094
2.147530  0.830742
2.150030  0.829706
2.152530  0.828097
2.155030  0.825922
2.157530  0.823608
2.160030  0.820410
2.162530  0.816022
2.165030  0.811144
2.167530  0.804899
2.170030  0.798013
2.172530  0.790529
2.175030  0.782946
2.177530  0.775164
2.180030  0.767324
2.182530  0.760174
2.185030  0.752539
2.187530  0.746039
2.190030  0.740547
2.192530  0.735605
2.195030  0.731410
2.197530  0.728163
2.200030  0.725812
2.202530  0.724459
2.205030  0.723288
2.207530  0.722890
2.210030  0.724201
2.212530  0.725790
2.215030  0.728480
2.217530  0.732328
2.220030  0.735915
2.222530  0.739818
2.225030  0.743443
2.227530  0.746560
2.230030  0.749740
2.232530  0.752658
2.235030  0.755593
2.237530  0.758089
2.240030  0.761101
2.242530  0.764485
2.245030  0.768065
2.247530  0.771938
2.250030  0.775407
2.252530  0.778540
2.255030  0.781309
2.257530  0.783629
2.260030  0.784978
2.262530  0.786369
2.265030  0.787585
2.267530  0.788088
2.270030  0.788517
2.272530  0.788695
2.275030  0.788144
2.277530  0.787577
2.280030  0.787222
2.282530  0.786093
2.285030  0.785078
2.287530  0.783951
2.290030  0.782774
2.292530  0.781166
2.295030  0.779967
2.297530  0.777983
2.300030  0.776147
2.302530  0.774382
2.305030  0.772959
2.307530  0.771490
2.310030  0.769505
2.312530  0.767775
2.315030  0.766295
2.317530  0.764459
2.320030  0.763087
2.322530  0.761391
2.325030  0.759718
2.327530  0.758154
2.330030  0.756755
2.332530  0.754651
2.335030  0.752768
2.337530  0.750728
2.340030  0.748662
2.342530  0.745899
2.345030  0.743985
2.347530  0.741874
2.350030  0.739988
2.352530  0.738005
2.355030  0.736379
2.357530  0.734997
2.360030  0.733577
2.362530  0.732242
2.365030  0.731326
2.367530  0.730315
2.370030  0.729382
2.372530  0.728720
2.375030  0.728144
2.377530  0.726985
2.380030  0.726012
2.382530  0.725300
2.385030  0.724120
2.387530  0.723309
2.390030  0.722079
2.392530  0.720939
2.395030  0.719877
2.397530  0.719081
2.400030  0.718017
2.402530  0.717200
2.405030  0.716349
2.407530  0.715531
2.410030  0.714849
2.412530  0.714034
2.415030  0.713078
2.417530  0.712205
2.420030  0.711024
2.422530  0.710073
2.425030  0.708940
2.427530  0.707326
2.430030  0.706205
2.432530  0.705175
2.435030  0.704037
2.437530  0.702976
2.440030  0.701685
2.442530  0.700716
2.445030  0.699570
2.447530  0.698567
2.450030  0.697729
2.452530  0.697108
2.455030  0.696588
2.457530  0.696074
2.460030  0.695392
2.462530  0.694971
2.465030  0.694699
2.467530  0.694547
2.470030  0.694341
2.472530  0.694717
2.475030  0.694602
2.477530  0.694878
2.480030  0.694866
2.482530  0.694862
2.485030  0.694940
2.487530  0.694903
2.490030  0.694550
2.492530  0.693845
2.495030  0.693318
2.497530  0.692596
2.500030  0.691769
2.502530  0.690897
2.505030  0.690021
2.507530  0.689131
2.510030  0.688208
2.512530  0.687276
2.515030  0.686280
2.517530  0.685385
2.520030  0.684338
2.522530  0.683306
2.525030  0.682225
2.527530  0.681332
2.530030  0.680517
2.532530  0.679376
2.535030  0.678325
2.537530  0.677226
2.540030  0.676286
2.542530  0.675554
2.545030  0.674459
2.547530  0.673740
2.550030  0.672714
2.552530  0.671932
2.555030  0.670695
2.557530  0.669899
2.560030  0.669251
2.562540  0.668337
2.565040  0.666980
2.567540  0.665887
2.570040  0.665534
2.572540  0.663761
2.575040  0.663067
2.577540  0.662274
2.580040  0.660960
2.582540  0.660236
2.585040  0.658921
2.587540  0.657283
2.590040  0.656030
2.592540  0.654881
2.595040  0.654857
2.597540  0.649880
2.600040  0.649588
2.602540  0.648676
2.605040  0.647099
2.607540  0.644059
2.610040  0.642367
2.612540  0.640784
2.615040  0.639016
2.617540  0.637299
2.620040  0.634537
2.622540  0.632138
2.625040  0.630170
2.627540  0.628656
2.630040  0.625490
2.632540  0.622237
2.635040  0.619819
2.637540  0.617204
2.640040  0.614541
2.642540  0.611657
2.645040  0.608640
2.647540  0.605487
2.650040  0.602028
2.652540  0.598903
2.655040  0.594349
2.657540  0.590127
2.660040  0.586050
2.662540  0.580366
2.665040  0.575550
2.667540  0.567787
2.670040  0.558291
2.672540  0.545262
2.675040  0.531862
2.677540  0.519220
2.680040  0.503460
2.682540  0.483869
2.685040  0.457875
2.687540  0.424229
2.690040  0.386936
2.692540  0.350673
2.695040  0.317196
2.697540  0.287038
2.700040  0.263241
2.702540  0.244529
2.705040  0.229221
2.707540  0.216566
2.710040  0.205499
2.712540  0.193910
2.715040  0.181535
2.717540  0.168269
2.720040  0.153436
2.722540  0.137114
2.725040  0.121859
2.727540  0.107210
2.730040  0.094803
2.732540  0.084539
2.735040  0.076340
2.737540  0.069559
2.740040  0.064319
2.742540  0.059800
2.745040  0.056275
2.747540  0.053525
2.750040  0.051831
2.752540  0.050928
2.755040  0.051038
2.757540  0.051752
2.760040  0.053203
2.762540  0.055467
2.765040  0.058257
2.767540  0.061542
2.770040  0.065272
2.772540  0.069510
2.775040  0.074265
2.777540  0.079406
2.780040  0.085023
2.782540  0.091004
2.785040  0.097219
2.787540  0.103621
2.790040  0.110324
2.792540  0.117022
2.795040  0.123608
2.797540  0.130114
2.800040  0.136358
2.802540  0.142234
2.805040  0.147936
2.807540  0.153027
2.810040  0.157732
2.812540  0.161931
2.815040  0.165821
2.817540  0.169183
2.820040  0.172103
2.822540  0.174750
2.825040  0.177052
2.827540  0.179026
2.830040  0.180896
2.832540  0.182496
